Data from Transmission_14.txt Node
Date: Fri Jun 28 11:24:04 EDT 2019
User: maxen
Spectrometer: FLMS00239
Trigger mode: 0
Integration Time (sec): 1,000000E-1
Scans to average: 10
Electric dark correction enabled: true
Nonlinearity correction enabled: false
Boxcar width: 0
XAxis mode: Wavelengths
Number of Pixels in Spectrum: 2048
>>>>>Begin Spectral Data<<<<<
185,255	-20,58
185,731	-20,58
186,207	-20,58
186,683	47,36
187,159	26,34
187,635	116,48
188,111	114,61
188,587	87,73
189,062	115,03
189,538	68,87
190,014	-15,6
190,489	34,99
190,965	6,94
191,44	60,02
191,915	10,83
192,391	43,21
192,866	-535,13
193,341	134,57
193,816	129,88
194,291	51,91
194,766	65,54
195,241	858,57
195,716	149,14
196,191	6,22
196,666	93,17
197,141	91,62
197,615	77,06
198,09	107,33
198,564	-39,36
199,039	47,72
199,513	67,96
199,988	99,57
200,462	78,05
200,936	69,86
201,41	31,41
201,884	45,47
202,358	18,78
202,832	-141,26
203,306	204,38
203,78	-145,78
204,254	95,75
204,728	141,23
205,201	55,84
205,675	-5724,29
206,148	-0,76
206,622	154,85
207,095	69,58
207,569	-947,14
208,042	-47,87
208,515	-5,33
208,988	4,91
209,461	99,85
209,935	150
210,408	-6,4
210,88	39,9
211,353	111,9
211,826	129,42
212,299	-2798,57
212,772	22,61
213,244	33,28
213,717	-69,6
214,189	75,5
214,662	134,26
215,134	51,96
215,606	-173,97
216,079	23,47
216,551	114,54
217,023	86,78
217,495	322,31
217,967	-49,62
218,439	-0,13
218,911	-56,03
219,383	25,25
219,855	38,03
220,326	78,43
220,798	25,17
221,27	19,71
221,741	183,77
222,213	49,68
222,684	83,2
223,155	-231,37
223,627	-48,92
224,098	-113
224,569	170,84
225,04	-262,39
225,511	53,3
225,982	-145,47
226,453	140,27
226,924	87,11
227,395	-13,4
227,865	108,34
228,336	19,36
228,807	76,48
229,277	74,15
229,748	64,39
230,218	171,45
230,689	30,94
231,159	-2227,14
231,629	-15,39
232,099	35,17
232,57	102,96
233,04	62,26
233,51	59,12
233,98	87,76
234,449	78,09
234,919	21,31
235,389	-3,77
235,859	-10
236,328	74,07
236,798	80,98
237,267	53,51
237,737	-274,27
238,206	142,47
238,676	-283,26
239,145	172,48
239,614	-36,99
240,083	38,71
240,552	-24,72
241,021	139,33
241,49	100,98
241,959	-181,5
242,428	202,44
242,897	15,69
243,366	-53,64
243,834	44,62
244,303	92,09
244,771	190,46
245,24	25,71
245,708	-24,71
246,177	203,56
246,645	-9,39
247,113	31,95
247,581	91,05
248,05	110,71
248,518	30,9
248,986	41,69
249,454	62,27
249,921	58,47
250,389	74,02
250,857	-30,87
251,325	58,33
251,792	65,79
252,26	-22,19
252,727	55,75
253,195	-12,61
253,662	86,44
254,13	-144,13
254,597	-813,9
255,064	103,48
255,531	36,7
255,998	-283,45
256,465	298,77
256,932	54,11
257,399	24,03
257,866	33,06
258,333	17,28
258,799	18,81
259,266	79,18
259,733	39,35
260,199	40,09
260,666	36,65
261,132	-74,38
261,599	197,38
262,065	106,45
262,531	8,84
262,997	135,42
263,463	99,94
263,929	82,24
264,395	37,47
264,861	883,66
265,327	123,22
265,793	-90,4
266,259	163,49
266,724	5,77
267,19	-56,45
267,656	-150,8
268,121	-279,59
268,586	-62,54
269,052	2207,14
269,517	44,06
269,982	13,84
270,448	-14,88
270,913	92,96
271,378	27,6
271,843	160,3
272,308	54,66
272,773	10,23
273,238	87,19
273,702	62,08
274,167	258,17
274,632	155,19
275,096	1475,71
275,561	-185,34
276,025	115,77
276,49	65,91
276,954	40,48
277,418	80,03
277,882	79,35
278,347	76,05
278,811	-0,42
279,275	25,27
279,739	56,52
280,203	-42,27
280,667	-156,29
281,13	-90,43
281,594	179,58
282,058	61,7
282,521	-144,9
282,985	-114,27
283,448	118,96
283,912	214,56
284,375	-67,7
284,839	68,44
285,302	66,55
285,765	251,46
286,228	28,58
286,691	-39,09
287,154	617,2
287,617	-70,26
288,08	-32,86
288,543	84,46
289,006	81,16
289,468	29,08
289,931	-2181,43
290,393	-27,12
290,856	70,68
291,318	112,29
291,781	72,61
292,243	720,43
292,705	97,72
293,168	-20,41
293,63	68,01
294,092	22,78
294,554	133,91
295,016	7,49
295,478	211,91
295,94	-75,88
296,402	91,82
296,863	18,03
297,325	-462,17
297,787	14,21
298,248	-38,4
298,71	163,84
299,171	-731,95
299,632	111,44
300,094	57,16
300,555	-40,98
301,016	-114,14
301,477	-12,34
301,938	29,83
302,399	49,03
302,86	43,99
303,321	54,08
303,782	63,95
304,243	94,2
304,703	334,79
305,164	265,78
305,625	54,61
306,085	-20,51
306,546	75,54
307,006	47
307,466	98,68
307,927	41,81
308,387	12,86
308,847	171,88
309,307	37,98
309,767	70,65
310,227	94,79
310,687	30,45
311,147	100,6
311,606	80,75
312,066	240,79
312,526	53,88
312,985	31,42
313,445	59,22
313,905	-6,03
314,364	-142,83
314,823	-22,31
315,283	116,47
315,742	54,53
316,201	48,18
316,66	4,01
317,119	-435,37
317,578	-238,31
318,037	54,97
318,496	-55,84
318,955	83,87
319,414	-149,72
319,872	165,69
320,331	14,59
320,789	19,63
321,248	111,21
321,706	-2,47
322,165	56,96
322,623	57,37
323,081	155,68
323,54	115,52
323,998	647,78
324,456	45,26
324,914	-22,19
325,372	5,28
325,83	73,82
326,288	126,3
326,745	143,79
327,203	13,91
327,661	180,68
328,118	7,82
328,576	90,36
329,033	42,93
329,491	-54,21
329,948	27,32
330,405	83,73
330,863	-336,96
331,32	70,88
331,777	15,36
332,234	14,72
332,691	-116,07
333,148	122,23
333,605	-30,6
334,062	2,78
334,518	54,09
334,975	-47,4
335,432	-2,64
335,888	-54,21
336,345	-12,42
336,801	-467,14
337,258	1788,4
337,714	-21,03
338,17	32,32
338,626	-80,03
339,083	-71,85
339,539	58,57
339,995	77,52
340,451	90,69
340,906	139,74
341,362	778,29
341,818	-93,81
342,274	30,29
342,729	296,09
343,185	87,58
343,641	69,48
344,096	45,17
344,552	64,43
345,007	-1,14
345,462	127,28
345,917	49,79
346,373	-196,18
346,828	222,33
347,283	-682,82
347,738	305,49
348,193	289,49
348,648	17,34
349,102	58,31
349,557	-444,87
350,012	103,66
350,466	14,97
350,921	87,66
351,375	-451,6
351,83	192,31
352,284	2674,44
352,739	-375,07
353,193	107,45
353,647	-154,47
354,101	-29,32
354,555	86,07
355,009	19,82
355,463	-89,33
355,917	179,09
356,371	98,19
356,825	11,15
357,279	96,07
357,732	161,31
358,186	54,61
358,639	49,5
359,093	119,73
359,546	73,94
360	51,06
360,453	25,13
360,906	1821,11
361,359	418,19
361,812	83,52
362,265	103,2
362,718	102,4
363,171	4,71
363,624	68,69
364,077	586,16
364,53	67,55
364,982	135,82
365,435	91,19
365,888	47,69
366,34	80,46
366,793	-62,3
367,245	27,93
367,697	-324,18
368,15	88,61
368,602	117,35
369,054	505,12
369,506	42,72
369,958	-120,55
370,41	-532,82
370,862	18,66
371,314	76,71
371,766	38,81
372,217	32,93
372,669	301,23
373,121	118,27
373,572	42,66
374,024	90,79
374,475	78,4
374,926	252,48
375,378	195,89
375,829	16,63
376,28	-36,76
376,731	167,24
377,182	39,68
377,633	298,77
378,084	150,64
378,535	189,55
378,986	338,07
379,437	172,21
379,887	67,21
380,338	54,81
380,788	5338,57
381,239	-18,73
381,689	27,88
382,14	59,3
382,59	105,42
383,04	130,19
383,491	29,65
383,941	70,74
384,391	-198,49
384,841	84,92
385,291	147,13
385,741	107,2
386,191	54,16
386,64	19,2
387,09	-36,78
387,54	372,81
387,989	77,29
388,439	13,66
388,888	57,39
389,338	63,9
389,787	56,87
390,236	30,22
390,686	44,18
391,135	48,51
391,584	50,5
392,033	-11,71
392,482	27,62
392,931	24,66
393,38	-0,3
393,829	83,35
394,277	82,68
394,726	109,12
395,175	52,32
395,623	110,11
396,072	70,11
396,52	74,02
396,969	72,72
397,417	65,37
397,865	-893,48
398,313	22
398,762	61,18
399,21	-15,83
399,658	51,58
400,106	82,66
400,554	44,82
401,001	73,8
401,449	51,87
401,897	47,64
402,345	70,96
402,792	83,15
403,24	61,16
403,687	82,24
404,135	78,71
404,582	63,77
405,029	49,94
405,477	60,68
405,924	60,39
406,371	70,5
406,818	80,71
407,265	73,57
407,712	51,86
408,159	47,68
408,606	56,02
409,052	37,51
409,499	49,09
409,946	58,42
410,392	60,9
410,839	57,31
411,285	81,36
411,732	73,4
412,178	54,75
412,624	61,21
413,07	66,3
413,517	70,09
413,963	78,49
414,409	66,86
414,855	85,21
415,301	66,33
415,746	75,77
416,192	65,57
416,638	72,97
417,084	67,73
417,529	73,02
417,975	75,14
418,42	76,92
418,866	71,45
419,311	73,77
419,756	68,33
420,202	64,22
420,647	63,87
421,092	68,76
421,537	70,96
421,982	75,46
422,427	82,62
422,872	83,08
423,317	77,79
423,762	76,38
424,206	70,73
424,651	67,58
425,095	68,67
425,54	66,52
425,984	74,07
426,429	80,49
426,873	83,42
427,317	83,43
427,762	79,17
428,206	74,99
428,65	70,32
429,094	68,17
429,538	67,02
429,982	69,65
430,426	72,01
430,87	77,81
431,313	82,13
431,757	86,5
432,201	86,09
432,644	81,8
433,088	77,54
433,531	72,2
433,974	70,65
434,418	69,9
434,861	72,79
435,304	77,27
435,747	83,2
436,19	88,2
436,633	90,71
437,076	88,72
437,519	83,2
437,962	78,53
438,405	74,39
438,848	72,95
439,29	73,91
439,733	75,89
440,175	81,09
440,618	86,96
441,06	90,16
441,503	92,62
441,945	89,93
442,387	85,65
442,829	80,53
443,271	76,88
443,713	74,85
444,155	75,16
444,597	78,05
445,039	82,8
445,481	86,95
445,923	91,27
446,364	91,63
446,806	90,63
447,248	86,03
447,689	80,27
448,131	76,27
448,572	73,33
449,013	72,27
449,455	72,31
449,896	75,2
450,337	80,26
450,778	85,28
451,219	87,83
451,66	88,3
452,101	86,31
452,542	84,08
452,983	80,3
453,423	76,77
453,864	74,43
454,305	73,98
454,745	76,06
455,186	79,1
455,626	80,37
456,066	81,79
456,507	80,59
456,947	79,26
457,387	75,76
457,827	73,09
458,267	70,39
458,707	68,06
459,147	65,08
459,587	64,68
460,027	63,24
460,467	65,92
460,906	68,61
461,346	71,87
461,786	73,56
462,225	74,71
462,664	76,65
463,104	76,43
463,543	75,94
463,982	74,51
464,422	72,89
464,861	70,65
465,3	67,22
465,739	63,2
466,178	58,16
466,617	54,18
467,056	50,03
467,495	46,31
467,933	41,78
468,372	38,63
468,811	33,51
469,249	29,75
469,688	25,75
470,126	21,43
470,564	17,13
471,003	13,48
471,441	11,65
471,879	9,72
472,317	7,74
472,755	6,36
473,193	4,87
473,631	4,99
474,069	4,94
474,507	5,01
474,945	4,72
475,382	6,45
475,82	11,97
476,258	13,22
476,695	9,66
477,133	8,16
477,57	10,22
478,007	16,28
478,445	26,6
478,882	30,22
479,319	23,44
479,756	12,44
480,193	6,75
480,63	4,15
481,067	2,67
481,504	0,92
481,941	1,46
482,378	1,27
482,814	1,37
483,251	1,32
483,687	1,72
484,124	1,43
484,56	1,38
484,997	0,6
485,433	1,05
485,869	1,05
486,306	1,03
486,742	0,8
487,178	1,2
487,614	0,67
488,05	0,74
488,486	0,47
488,922	0,84
489,357	1,18
489,793	0,31
490,229	1,01
490,664	0,96
491,1	0,52
491,535	0,95
491,971	1,35
492,406	0,69
492,841	0,38
493,277	1,28
493,712	0,92
494,147	0,92
494,582	1,33
495,017	0,81
495,452	0,75
495,887	1,19
496,322	1,04
496,756	1,33
497,191	1,26
497,626	1,3
498,06	1,63
498,495	1,5
498,929	1,83
499,364	2,48
499,798	2,79
500,232	3,61
500,667	4,48
501,101	6,05
501,535	8,39
501,969	12,22
502,403	18,29
502,837	26,74
503,271	36,11
503,704	44,01
504,138	49,21
504,572	50,93
505,005	52,85
505,439	53,3
505,872	57,04
506,306	64,1
506,739	72,27
507,173	81,48
507,606	89,43
508,039	93,85
508,472	93,51
508,905	93,25
509,338	93,06
509,771	93,02
510,204	91,84
510,637	92,6
511,07	93,47
511,502	92,44
511,935	94,04
512,368	94,89
512,8	94,02
513,233	94,59
513,665	95,35
514,097	94,93
514,53	96,21
514,962	94,83
515,394	93,64
515,826	94,84
516,258	93,87
516,69	94,48
517,122	92,46
517,554	93,43
517,986	94,4
518,418	94,44
518,849	93,95
519,281	95,71
519,713	94,95
520,144	94,52
520,575	94,68
521,007	94,68
521,438	94,58
521,869	93,2
522,301	94,98
522,732	94,52
523,163	94,34
523,594	94,61
524,025	94,2
524,456	93,98
524,887	95,89
525,317	95,56
525,748	95,56
526,179	94,65
526,609	94,8
527,04	93,31
527,471	92,16
527,901	92,33
528,331	92,13
528,762	92,5
529,192	92,62
529,622	92,92
530,052	92,62
530,482	94,57
530,912	94,65
531,342	95,89
531,772	96
532,202	96,54
532,632	95,72
533,061	95,78
533,491	95,36
533,921	94,68
534,35	94,58
534,78	95,02
535,209	93,92
535,638	94,31
536,068	94,03
536,497	94,01
536,926	94,62
537,355	94,51
537,784	94,72
538,213	95,27
538,642	94,96
539,071	96
539,5	97,01
539,929	95,3
540,357	96,19
540,786	95,78
541,214	95,67
541,643	94,53
542,071	94,7
542,5	94,77
542,928	94,57
543,356	93,95
543,785	93,74
544,213	93,93
544,641	94,43
545,069	94,84
545,497	95,86
545,925	95,95
546,353	95,54
546,78	96,02
547,208	96,79
547,636	96,9
548,063	96,53
548,491	96,94
548,918	96,41
549,346	95,73
549,773	95,66
550,201	94,84
550,628	95,55
551,055	95,52
551,482	95,21
551,909	94,85
552,336	94,66
552,763	94,53
553,19	95,11
553,617	95,54
554,044	95,58
554,47	95,32
554,897	95,62
555,324	95,87
555,75	95,98
556,177	96,13
556,603	96,21
557,029	95,73
557,456	96,29
557,882	96,67
558,308	96,43
558,734	95,42
559,16	96,12
559,586	96,24
560,012	97,4
560,438	97,69
560,864	97,43
561,289	97,45
561,715	97,26
562,141	96,93
562,566	97,05
562,992	96,5
563,417	97,04
563,843	96,73
564,268	95,98
564,693	96,03
565,118	95,88
565,544	95,81
565,969	95,29
566,394	95,42
566,819	95,52
567,244	95,33
567,668	95,36
568,093	95,86
568,518	96,03
568,943	96,19
569,367	96,24
569,792	96,25
570,216	96,43
570,641	97,07
571,065	96,79
571,489	97,38
571,914	97,44
572,338	97,32
572,762	97,39
573,186	97,07
573,61	96,6
574,034	96,86
574,458	97,42
574,882	96,76
575,306	96,79
575,729	96,43
576,153	96,18
576,576	96,36
577	95,75
577,423	95,95
577,847	96,76
578,27	96,11
578,694	95,78
579,117	96,48
579,54	96,01
579,963	95,86
580,386	96,56
580,809	95,77
581,232	96,14
581,655	96,12
582,078	96,63
582,5	96,54
582,923	96,46
583,346	95,69
583,768	96,92
584,191	96,21
584,613	95,75
585,036	95,62
585,458	96,01
585,88	95,67
586,302	96,53
586,725	96,14
587,147	96,06
587,569	95,41
587,991	95,25
588,413	95,53
588,834	95,79
589,256	95,2
589,678	94,66
590,1	94,43
590,521	95,7
590,943	95,46
591,364	95,78
591,786	95,83
592,207	95,36
592,628	96,35
593,05	95,39
593,471	96,75
593,892	95,47
594,313	96,21
594,734	96,22
595,155	96,72
595,576	96,48
595,997	96,2
596,418	96,72
596,838	96,19
597,259	95,27
597,68	95,53
598,1	95,63
598,521	95,6
598,941	95,47
599,361	94,71
599,782	94,62
600,202	94,1
600,622	95,95
601,042	95,08
601,462	94,56
601,882	94,68
602,302	95,07
602,722	96,01
603,142	94,87
603,562	95,68
603,981	96,18
604,401	96,43
604,821	96,78
605,24	95,66
605,66	95,59
606,079	95,72
606,498	94,8
606,918	96,24
607,337	96,11
607,756	95,67
608,175	95,19
608,594	94,95
609,013	94,49
609,432	95,15
609,851	95,08
610,27	93,92
610,688	94,52
611,107	95,1
611,526	93,89
611,944	95,28
612,363	95,4
612,781	94,44
613,2	95,39
613,618	95,19
614,036	96,03
614,454	95,77
614,872	95,51
615,291	96,26
615,709	94,94
616,127	96,91
616,544	95,02
616,962	96,21
617,38	95,36
617,798	95,95
618,215	95,15
618,633	95,41
619,051	93,66
619,468	93,88
619,886	93,48
620,303	93,59
620,72	93,54
621,137	93,5
621,555	94,19
621,972	94,36
622,389	93,68
622,806	94,94
623,223	95,44
623,64	94,37
624,056	93,98
624,473	95,44
624,89	94,87
625,307	95,33
625,723	95,2
626,14	95,4
626,556	95,95
626,973	96,25
627,389	95,41
627,805	94,52
628,221	94,72
628,638	95,09
629,054	94,97
629,47	94,52
629,886	95,33
630,302	94,9
630,718	94,08
631,133	96,44
631,549	93,91
631,965	94,96
632,38	94,38
632,796	94,56
633,212	94,15
633,627	94,53
634,042	95,55
634,458	94,25
634,873	93,59
635,288	93,72
635,703	94,56
636,118	95,32
636,534	95,15
636,948	94,24
637,363	93,99
637,778	95,52
638,193	94,21
638,608	95,11
639,022	94,38
639,437	95,08
639,852	94,07
640,266	93,37
640,681	93,88
641,095	93,14
641,509	95,79
641,924	92,32
642,338	94,19
642,752	91,66
643,166	92,03
643,58	91,51
643,994	94,49
644,408	94,34
644,822	92,67
645,235	94,48
645,649	93,14
646,063	95,28
646,476	94,97
646,89	94,22
647,303	95,51
647,717	95,93
648,13	94,65
648,544	95,29
648,957	94,2
649,37	92,86
649,783	92,45
650,196	94,4
650,609	92,72
651,022	94,17
651,435	92,81
651,848	93,82
652,261	92,15
652,673	92,93
653,086	92,6
653,499	92,91
653,911	91,74
654,324	93,83
654,736	93,88
655,148	92,96
655,561	92,02
655,973	94,04
656,385	93,91
656,797	93,49
657,209	96,35
657,621	93,97
658,033	95,21
658,445	92,32
658,857	91,65
659,269	95,07
659,68	94,76
660,092	92,04
660,503	93,87
660,915	90,16
661,326	90,96
661,738	94,72
662,149	92,19
662,56	91,12
662,972	90,73
663,383	91,81
663,794	91,18
664,205	90,42
664,616	91,64
665,027	90,8
665,438	92,56
665,848	92,9
666,259	91,02
666,67	93,46
667,08	95,65
667,491	91,1
667,902	93,97
668,312	92,35
668,722	91,75
669,133	91,3
669,543	94,76
669,953	94,85
670,363	91,82
670,773	93,91
671,183	95,39
671,593	92,83
672,003	95,2
672,413	92,66
672,823	93,32
673,233	91,83
673,642	92,25
674,052	93,82
674,461	94,37
674,871	91,36
675,28	93,37
675,69	92,51
676,099	91,47
676,508	91,63
676,917	93,47
677,327	93,91
677,736	92,59
678,145	94,6
678,554	92,1
678,962	91,28
679,371	94,57
679,78	90,75
680,189	90,65
680,597	98,1
681,006	93,22
681,415	93,03
681,823	92,54
682,231	96,02
682,64	97,7
683,048	94,32
683,456	95,13
683,865	96,51
684,273	93,62
684,681	93,31
685,089	96,52
685,497	94,49
685,905	91,04
686,312	97,92
686,72	91,08
687,128	90,86
687,535	94,79
687,943	93,27
688,351	95,78
688,758	94,43
689,165	93,63
689,573	93,05
689,98	95,61
690,387	92,29
690,794	96,55
691,201	92,53
691,609	96,78
692,016	93,03
692,422	89,12
692,829	95,93
693,236	91,15
693,643	92,13
694,05	96,15
694,456	94,78
694,863	96,49
695,269	92,37
695,676	100,77
696,082	97,94
696,488	96,38
696,895	90,21
697,301	91,84
697,707	93,35
698,113	93,24
698,519	95,88
698,925	100,64
699,331	91,61
699,737	94,92
700,143	91,7
700,548	91,8
700,954	92,98
701,36	90,55
701,765	89,44
702,171	90,82
702,576	95,47
702,982	90,56
703,387	85,56
703,792	92,14
704,197	89,52
704,603	84,83
705,008	89,14
705,413	97,23
705,818	99,29
706,222	84,11
706,627	99,8
707,032	97,04
707,437	91,8
707,841	104,93
708,246	84,14
708,651	90,96
709,055	98,63
709,46	92,57
709,864	98,04
710,268	85,42
710,672	90,92
711,077	91,02
711,481	94,18
711,885	93,84
712,289	92,75
712,693	91,06
713,097	84,61
713,501	90,2
713,904	87,9
714,308	84,04
714,712	90,04
715,115	94,02
715,519	96,36
715,922	93,67
716,326	86,92
716,729	88,01
717,132	84,74
717,536	85,53
717,939	89,68
718,342	86,06
718,745	89,4
719,148	105,07
719,551	88,28
719,954	81,99
720,357	88,66
720,759	96,81
721,162	94,9
721,565	98
721,967	94,47
722,37	97,21
722,772	98,21
723,175	100,89
723,577	99,11
723,979	97,86
724,381	91,88
724,784	85,46
725,186	83,49
725,588	88,54
725,99	95,45
726,392	100,68
726,794	89,1
727,195	97,02
727,597	90,89
727,999	84,05
728,4	91,1
728,802	111,23
729,204	85,34
729,605	87,97
730,006	77,53
730,408	83,58
730,809	94,61
731,21	83,57
731,611	98,55
732,012	95,92
732,414	98,57
732,814	96,86
733,215	113,28
733,616	96,22
734,017	97,5
734,418	95,15
734,818	87,07
735,219	100,05
735,62	94,87
736,02	103,05
736,421	93,72
736,821	76,51
737,221	88,62
737,622	99,16
738,022	73,7
738,422	91,77
738,822	92,4
739,222	81,3
739,622	81,7
740,022	83,52
740,422	91,38
740,822	94,01
741,221	76,04
741,621	79,76
742,021	128,7
742,42	79,03
742,82	80,78
743,219	103,9
743,618	105,95
744,018	101,39
744,417	75,98
744,816	100,48
745,215	122,95
745,614	101,05
746,013	104,84
746,412	97,28
746,811	70,25
747,21	90,9
747,609	107,24
748,008	95,44
748,406	88,3
748,805	99,34
749,203	102,74
749,602	105,87
750	101,88
750,399	95,6
750,797	89,95
751,195	118,96
751,593	103,93
751,992	74,49
752,39	92,67
752,788	73,65
753,186	82,07
753,583	88,16
753,981	92,46
754,379	75,59
754,777	111,58
755,174	71,48
755,572	82,9
755,97	86,02
756,367	69,87
756,764	75,74
757,162	78,6
757,559	116,76
757,956	71,92
