Data from Transmission_11-03-07-319.txt Node
Date: Fri Aug 02 11:03:07 EDT 2019
User: maxen
Spectrometer: USB2G16502
Scans to average: 1
Trigger mode: 4
Integration Time (sec): 1,000000E-1
Electric dark correction enabled: true
Boxcar width: 0
XAxis mode: Wavelengths
Number of Pixels in Spectrum: 2048
>>>>>Begin Spectral Data<<<<<
339,156	-340
339,534	74
339,911	87,5
340,288	875
340,665	-700
341,042	200
341,419	-1150
341,796	-19,51
342,173	16,33
342,55	875
342,927	-7,69
343,304	46,34
343,68	-45,45
344,057	121,74
344,434	-475
344,811	264,29
345,187	-25
345,564	87,5
345,941	1775
346,317	-160
346,694	135,71
347,07	61,54
347,447	87,5
347,823	170,97
348,199	-57,14
348,576	-250
348,952	122,41
349,328	-48,28
349,705	-25
350,081	684,62
350,457	-3,23
350,833	143,75
351,209	134,15
351,585	34,69
351,961	10,53
352,337	380
352,713	-32,26
353,089	-250
353,465	82,61
353,841	-152,17
354,217	-146,15
354,593	650
354,968	-146,15
355,344	392,86
355,72	-215,38
356,095	392,86
356,471	-113,04
356,847	71,43
357,222	-32,76
357,598	60,34
357,973	920
358,349	-700
358,724	200
359,099	92,54
359,475	82,61
359,85	-146,15
360,225	20
360,6	7,14
360,976	79,1
361,351	122,41
361,726	118,18
362,101	-700
362,476	41,18
362,851	425
363,226	69,74
363,601	128
363,976	20
364,351	-520
364,726	83,87
365,1	7,14
365,475	-1375
365,85	-925
366,225	-127,27
366,599	20
366,974	269,23
367,348	-250
367,723	38,81
368,097	1325
368,472	57,89
368,846	-8,42
369,221	31,25
369,595	-3,23
369,969	239,13
370,344	-113,04
370,718	-48,28
371,092	-32,26
371,466	36,36
371,841	200
372,215	7,14
372,589	112,9
372,963	87,5
373,337	137,93
373,711	-3,23
374,085	87,5
374,459	-2,5
374,832	425
375,206	143,75
375,58	159,09
375,954	-340
376,327	59,37
376,701	269,23
377,075	7,14
377,448	1,3
377,822	3,12
378,195	269,23
378,569	90,24
378,942	59,37
379,316	141,94
379,689	-160
380,063	-25
380,436	-34,78
380,809	229,03
381,182	135,71
381,556	-25
381,929	44,83
382,302	42,5
382,675	36,36
383,048	182
383,421	92,54
383,794	200
384,167	160,87
384,54	-146,15
384,913	25,37
385,286	54,84
385,659	-34,78
386,031	89,8
386,404	42,5
386,777	-25
387,149	-76,92
387,522	-160
387,895	-177,42
388,267	34,69
388,64	740
389,012	57,89
389,385	121,74
389,757	-127,27
390,129	1100
390,502	36,36
390,874	-3,23
391,246	-7,69
391,619	-20,41
391,991	-475
392,363	380
392,735	44,83
393,107	-209,09
393,479	-70
393,851	-4,55
394,223	560
394,595	-32,94
394,967	60,34
395,339	-20,41
395,711	20
396,082	61,54
396,454	7,14
396,826	-423,08
397,198	650
397,569	-10,64
397,941	-20,41
398,312	10,53
398,684	-20,41
399,055	-63,79
399,427	-112,24
399,798	-57,14
400,17	-48,94
400,541	-1,72
400,912	21,49
401,284	91,38
401,655	23,21
402,026	27,46
402,397	11,49
402,768	4,82
403,139	-11,45
403,51	10,83
403,881	11,35
404,252	7,73
404,623	-0,39
404,994	-33,16
405,365	-13,86
405,736	35,77
406,107	-3,53
406,477	6,65
406,848	21,65
407,219	13,55
407,59	-2,44
407,96	-4,19
408,331	-17,46
408,701	-3,88
409,072	5,62
409,442	3,13
409,813	-3,55
410,183	-0,16
410,553	13,71
410,924	1,28
411,294	2,11
411,664	-1,19
412,034	-1,24
412,405	2,85
412,775	-0,1
413,145	-0,09
413,515	2,21
413,885	1,4
414,255	0,63
414,625	1,24
414,995	-0,71
415,364	-2,95
415,734	-2,14
416,104	-0,06
416,474	-2,03
416,844	0,87
417,213	-2,31
417,583	1,58
417,952	-3,11
418,322	-0,39
418,692	-0,38
419,061	-0,36
419,43	0,88
419,8	1,15
420,169	-0,03
420,539	-0,03
420,908	-2,03
421,277	0,46
421,646	0,42
422,016	0,18
422,385	0,57
422,754	0,77
423,123	0,16
423,492	-0,02
423,861	0,15
424,23	-0,18
424,599	1,05
424,968	0,43
425,337	0,4
425,705	-0,01
426,074	0,5
426,443	-0,01
426,812	-0,13
427,18	-0,58
427,549	-0,34
427,918	1,11
428,286	0,67
428,655	0,45
429,023	0,17
429,392	-0,01
429,76	-0,09
430,128	0,32
430,497	0,07
430,865	0,37
431,233	-0,3
431,601	-0,36
431,97	0,27
432,338	-0,21
432,706	0,25
433,074	-0,2
433,442	0,42
433,81	-0,07
434,178	0,11
434,546	-0,24
434,914	0,28
435,281	0,27
435,649	0,35
436,017	-0,12
436,385	0,22
436,752	-0,23
437,12	-0,06
437,488	0,45
437,855	0,17
438,223	0,05
438,59	0,12
438,958	0,06
439,325	-0,01
439,693	-0,01
440,06	-0,08
440,427	-0,08
440,794	0,14
441,162	-0,01
441,529	0,46
441,896	-0,33
442,263	0,49
442,63	0,08
442,997	-0,36
443,364	-0,2
443,731	0,37
444,098	0,4
444,465	-0,22
444,832	-0,01
445,199	0,33
445,566	-1,24
445,932	-0,52
446,299	0,49
446,666	0,25
447,032	-0,69
447,399	0,12
447,765	0,13
448,132	0,13
448,498	-0,31
448,865	-0,17
449,231	-0,18
449,597	-0,02
449,964	-0,51
450,33	0,49
450,696	-0,02
451,063	0,49
451,429	0,16
451,795	-0,02
452,161	-0,37
452,527	0,52
452,893	-0,95
453,259	-0,38
453,625	2,5
453,991	0,72
454,357	0,37
454,722	0,57
455,088	1,55
455,454	-0,02
455,82	0,8
456,185	0,83
456,551	1,5
456,916	-0,02
457,282	0,42
457,648	-0,25
458,013	-0,26
458,378	0,2
458,744	-1,02
459,109	-1,03
459,474	0,47
459,84	2,89
460,205	-0,28
460,57	0,47
460,935	-0,27
461,3	-0,54
461,666	0,49
462,031	-1,05
462,396	2,77
462,761	0,72
463,126	0,73
463,49	-0,54
463,855	-0,03
464,22	-0,03
464,585	1,21
464,95	0,22
465,314	0,21
465,679	0,45
466,044	-1,16
466,408	-1,66
466,773	2,66
467,137	-0,02
467,502	1,93
467,866	0,84
468,23	0,41
468,595	-0,63
468,959	-0,43
469,323	-1,04
469,688	0,36
470,052	0,55
470,416	0,53
470,78	0,91
471,144	0,16
471,508	1,8
471,872	0,67
472,236	0,32
472,6	0,14
472,964	0,8
473,328	-0,18
473,692	1,09
474,055	-0,32
474,419	0,58
474,783	1,3
475,146	0,41
475,51	0,41
475,874	-0,15
476,237	0,12
476,601	1,15
476,964	-0,66
477,327	1,22
477,691	-0,26
478,054	-0,26
478,417	0,58
478,781	-0,8
479,144	0,43
479,507	0,31
479,87	-0,12
480,233	0,52
480,596	-0,22
480,959	0,38
481,322	-0,01
481,685	-0,3
482,048	0,18
482,411	0,18
482,774	-0,2
483,137	0,26
483,499	0,34
483,862	0,33
484,225	-0,01
484,588	0,4
484,95	0,48
485,313	0,95
485,675	0,15
486,038	0,23
486,4	0,53
486,762	0,52
487,125	0,44
487,487	0,65
487,849	0,28
488,212	0,69
488,574	0,55
488,936	0,41
489,298	0,41
489,66	0,47
490,022	1,27
490,384	1,84
490,746	2,46
491,108	3,9
491,47	6,37
491,832	10,62
492,194	13,59
492,555	17,65
492,917	21,98
493,279	27,15
493,64	29,29
494,002	34,34
494,364	38,97
494,725	43,07
495,087	46,56
495,448	52,11
495,809	55,52
496,171	60,17
496,532	65,12
496,893	68,94
497,255	73,08
497,616	75,81
497,977	81,2
498,338	85,81
498,699	88,05
499,06	91,12
499,421	92,9
499,782	95,06
500,143	94,52
500,504	95,34
500,865	96,39
501,226	97,07
501,586	97,25
501,947	97,54
502,308	96,03
502,669	97,86
503,029	97,47
503,39	98,42
503,75	95,47
504,111	96,29
504,471	94,83
504,832	95,06
505,192	97,23
505,552	98,67
505,913	100,4
506,273	97,24
506,633	97,22
506,993	96,27
507,353	96,66
507,713	94,5
508,073	95,88
508,433	95,17
508,793	97,35
509,153	97,97
509,513	97,3
509,873	97,29
510,233	95,91
510,593	95,36
510,952	93,63
511,312	95,24
511,672	95,78
512,031	96,28
512,391	97,35
512,75	98,12
513,11	96,23
513,469	96,48
513,829	96,11
514,188	95,38
514,548	96,88
514,907	97,97
515,266	97,38
515,625	94,92
515,984	96,11
516,344	96,27
516,703	95,18
517,062	96,29
517,421	95,28
517,78	94,33
518,139	97,45
518,497	97,57
518,856	99,03
519,215	97,36
519,574	97,26
519,933	97,09
520,291	95,17
520,65	95,8
521,009	96,6
521,367	99,6
521,726	99,09
522,084	97,43
522,443	95,29
522,801	96,95
523,159	96,23
523,518	93,71
523,876	92,25
524,234	92,66
524,592	92,48
524,95	88,58
525,309	86,7
525,667	82,08
526,025	79,7
526,383	75,78
526,741	69,5
527,099	64,5
527,456	60,7
527,814	57,31
528,172	54,31
528,53	48,16
528,887	44,07
529,245	39,28
529,603	35,76
529,96	32,08
530,318	27,23
530,675	22,31
531,033	18,95
531,39	15,19
531,748	11,38
532,105	8,25
532,462	5,58
532,82	3,24
533,177	1,8
533,534	1,04
533,891	0,51
534,248	0,09
534,605	0,56
534,962	0,13
535,319	-0,14
535,676	-0,24
536,033	0,46
536,39	-0,01
536,747	0,04
537,104	0,04
537,46	-0,01
537,817	-0,19
538,174	0,27
538,53	0,27
538,887	-0,05
539,243	0,18
539,6	0,04
539,956	0,17
540,313	0,22
540,669	0,17
541,025	0,27
541,382	-0,19
541,738	0,04
542,094	-0,05
542,45	0,17
542,806	0,13
543,162	0,08
543,518	0,13
543,874	0,17
544,23	-0,14
544,586	0,04
544,942	-0,18
545,298	0,22
545,654	0,13
546,009	0,22
546,365	-0,22
546,721	-0,05
547,076	0,12
547,432	-0,09
547,788	0,17
548,143	0,08
548,499	0,13
548,854	0,13
549,209	-0,05
549,565	0,08
549,92	-0,22
550,275	-0,05
550,63	0,12
550,986	0,08
551,341	0,21
551,696	0,12
552,051	-0,13
552,406	-0,18
552,761	0,04
553,116	0,08
553,471	-0,31
553,825	-0,05
554,18	-0,27
554,535	0,21
554,89	0,17
555,244	0,08
555,599	0,25
555,954	-0,13
556,308	-0,09
556,663	-0,05
557,017	-0,18
557,371	-0,22
557,726	-0,18
558,08	-0
558,435	-0,13
558,789	0,38
559,143	0,12
559,497	0,04
559,851	0,04
560,205	0,13
560,559	-0
560,913	0,17
561,267	-0,35
561,621	-0
561,975	0,04
562,329	-0,09
562,683	-0
563,037	-0,09
563,39	-0,09
563,744	-0,09
564,098	-0
564,451	0,17
564,805	0,3
565,158	-0,09
565,512	-0,13
565,865	0,04
566,218	0,04
566,572	-0
566,925	-0,05
567,278	0,08
567,632	-0,35
567,985	-0,22
568,338	-0,13
568,691	-0
569,044	0,25
569,397	0,25
569,75	-0,17
570,103	0,25
570,456	-0,05
570,809	0,25
571,161	0,04
571,514	-0,18
571,867	-0,17
572,22	-0,09
572,572	-0
572,925	0,08
573,277	-0,26
573,63	-0,34
573,982	0,33
574,335	-0
574,687	-0,3
575,039	0,21
575,392	0,12
575,744	0,04
576,096	0,08
576,448	0,08
576,8	-0
577,152	0,08
577,504	-0
577,856	-0,05
578,208	-0,05
578,56	0,04
578,912	-0
579,264	-0
579,616	0,29
579,968	0,08
580,319	0,25
580,671	-0,05
581,022	0,12
581,374	-0
581,726	0,16
582,077	-0,21
582,429	-0,05
582,78	0,24
583,131	0,08
583,483	0,12
583,834	-0,05
584,185	-0
584,536	-0,13
584,887	-0,17
585,239	0,12
585,59	0,2
585,941	0,16
586,292	-0,05
586,643	0,24
586,993	0,08
587,344	0,08
587,695	0,04
588,046	0,2
588,397	-0,13
588,747	-0,3
589,098	-0,05
589,448	0,04
589,799	-0,38
590,15	0,2
590,5	0,08
590,85	0,08
591,201	-0
591,551	0,2
591,901	0,08
592,252	-0
592,602	0,12
592,952	-0
593,302	0,08
593,652	-0,17
594,002	0,08
594,352	0,2
594,702	-0,05
595,052	0,04
595,402	0,2
595,752	0,08
596,102	-0
596,451	0,04
596,801	0,04
597,151	-0,05
597,5	-0
597,85	0,12
598,199	0,12
598,549	-0
598,898	0,12
599,248	-0,14
599,597	-0,09
599,946	0,25
600,296	-0,05
600,645	-0,05
600,994	-0,14
601,343	0,08
601,692	-0,23
602,041	0,13
602,39	-0,14
602,739	-0,09
603,088	-0,09
603,437	0,31
603,786	-0,32
604,135	-0,05
604,484	-0,27
604,832	-0,01
605,181	-0,01
605,53	-0,1
605,878	-0,05
606,227	0,22
606,575	-0,19
606,924	-0,14
607,272	-0,1
607,621	0,23
607,969	-0,01
608,317	-0,05
608,665	-0,1
609,014	0,23
609,362	-0,1
609,71	-0,15
610,058	-0,15
610,406	0,09
610,754	-0,01
611,102	-0,05
611,45	0,04
611,798	-0,16
612,145	-0,26
612,493	-0,21
612,841	-0,01
613,189	-0,11
613,536	0,05
613,884	-0,06
614,231	0,15
614,579	0,41
614,926	0,15
615,274	-0,01
615,621	0,05
615,968	-0,17
616,316	-0,01
616,663	-0,38
617,01	0,05
617,357	-0,23
617,704	-0,06
618,051	0,16
618,398	-0,01
618,745	-0,4
619,092	-0,17
619,439	0,11
619,786	-0,24
620,133	-0,06
620,48	-0,24
620,826	-0,47
621,173	0,17
621,52	-0,36
621,866	0,05
622,213	0,11
622,559	0,12
622,906	0,18
623,252	-0,19
623,599	-0,38
623,945	-0,13
624,291	0,18
624,638	0,24
624,984	0,06
625,33	0,25
625,676	-0,33
626,022	0,06
626,368	-0,27
626,714	0,06
627,06	-0,34
627,406	-0,01
627,752	0,2
628,098	-0,01
628,443	-0,21
628,789	-0,28
629,135	-0,42
629,48	-0,43
629,826	0,28
630,171	-0,3
630,517	-0,66
630,862	-0,37
631,208	-0,15
631,553	-0,01
631,898	-0,01
632,244	0,07
632,589	-0,24
632,934	0,22
633,279	-0,09
633,624	-0,47
633,97	0,22
634,315	-0,49
634,659	-0,57
635,004	-0,01
635,349	-0,42
635,694	0,24
636,039	-0,17
636,384	0,15
636,728	-0,34
637,073	-0,44
637,418	0,42
637,762	0,17
638,107	-0,01
638,451	-0,18
638,796	0,34
639,14	0,17
639,484	0,34
639,829	0,08
640,173	0,44
640,517	0,08
640,861	0,17
641,206	-0,01
641,55	-0,11
641,894	-0,4
642,238	0,09
642,582	-0,3
642,926	0,18
643,269	0,09
643,613	0,5
643,957	-0,31
644,301	0,5
644,645	-0,65
644,988	0,3
645,332	-0,65
645,675	0,09
646,019	-0,65
646,362	-0,12
646,706	-0,66
647,049	-0,24
647,392	-0,8
647,736	0,44
648,079	1,13
648,422	-0,36
648,765	0,22
649,108	-0,61
649,452	0,35
649,795	-0,86
650,138	0,59
650,48	0,48
650,823	0,6
651,166	0,11
651,509	0,5
651,852	0,61
652,195	0,38
652,537	-0,41
652,88	0,12
653,222	-0,54
653,565	0,53
653,907	-0,43
654,25	0,54
654,592	0,68
654,935	0,95
655,277	-0,44
655,619	0,7
655,961	-0,02
656,304	1,03
656,646	-0,47
656,988	-0,33
657,33	0,28
657,672	-0,33
658,014	-0,17
658,356	0,14
658,698	-0,34
659,039	0,47
659,381	-0,18
659,723	0,81
660,065	0,32
660,406	-0,02
660,748	-0,71
661,089	0,33
661,431	0,85
661,772	-0,02
662,114	-0,2
662,455	0,34
662,797	0,71
663,138	0,17
663,479	-0,81
663,82	-0,4
664,161	-0,63
664,503	0,37
664,844	-0,63
665,185	0,99
665,526	0,38
665,867	-0,23
666,207	1,63
666,548	1,02
666,889	-0,24
667,23	-0,02
667,57	-0,24
667,911	-0,02
668,252	0,2
668,592	0,88
668,933	0,68
669,273	-0,03
669,614	-0,98
669,954	-0,51
670,294	-1,01
670,635	0,94
670,975	0,46
671,315	0,23
671,655	-2,12
671,995	-1,07
672,336	-0,58
672,676	-1,91
673,016	-0,3
673,355	0,52
673,695	-0,6
674,035	0,53
674,375	0,84
674,715	-0,03
675,054	1,42
675,394	-0,03
675,734	-0,03
676,073	-0,34
676,413	-0,34
676,752	0,29
677,092	-0,37
677,431	-3,02
677,77	-3,33
678,11	0,96
678,449	1,65
678,788	-0,71
679,127	-0,39
679,467	1,01
679,806	0,31
680,145	-0,79
680,484	-3,09
680,823	-2,68
681,161	-0,78
681,5	2,18
681,839	1,12
682,178	-0,05
682,517	0,75
682,855	1,52
683,194	0,77
683,532	0,77
683,871	-0,05
684,209	0,78
684,548	-2,66
684,886	1,22
685,225	-0,97
685,563	-1,9
685,901	-0,05
686,239	-3,27
686,578	-0,55
686,916	2,19
687,254	-2
687,592	-2,51
687,93	-0,06
688,268	-0,06
688,606	-0,58
688,943	-2,64
689,281	0,47
689,619	1,49
689,957	-1,11
690,294	3,51
690,632	-2,19
690,969	2,77
691,307	-1,15
691,644	-3,42
691,982	-1,21
692,319	-1,88
692,657	-0,69
692,994	-0,68
693,331	-1,21
693,668	-0,68
694,006	1,26
694,343	1,24
694,68	-1,43
695,017	4,32
695,354	-0,07
695,691	-2,7
696,028	-2,89
696,364	-2,85
696,701	3,91
697,038	0,63
697,375	6,03
697,711	0,62
698,048	-4,61
698,384	5,42
698,721	0,69
699,057	-0,92
699,394	-1,64
699,73	2,96
700,066	2,27
700,403	1,59
700,739	0,71
701,075	0,74
701,411	-2,69
701,747	3,96
702,083	-2,84
702,419	-4,59
702,755	-2,08
703,091	1,57
703,427	3,52
703,763	1,68
704,099	-1,96
704,435	-7,15
704,77	0,88
705,106	3,65
705,441	1,98
705,777	2,69
706,113	0,93
706,448	3,95
706,783	-4,35
707,119	3,03
707,454	-0,12
707,789	0,89
708,125	-5,05
708,46	-1,27
708,795	-11,19
709,13	-7,15
709,465	-0,13
709,8	4,25
710,135	4,97
710,47	-2,39
710,805	1,05
711,139	7,23
711,474	-0,13
711,809	4,72
712,144	-6,77
712,478	-1,43
712,813	1,24
713,147	-9,82
713,482	5,22
713,816	-5,75
714,151	3,88
714,485	2,84
714,819	-8,93
715,153	1,24
715,488	-8,19
715,822	-3,13
716,156	3,78
716,49	-0,18
716,824	-4,9
717,158	-12,6
717,492	3,07
717,826	5,68
718,16	1,47
718,493	-2
718,827	4,78
719,161	9,91
719,494	3,47
719,828	4,41
720,161	-8,15
720,495	-2
720,828	-1,93
721,162	3,18
721,495	-0,2
721,829	6,77
722,162	-2,2
722,495	-0,21
722,828	-0,22
723,161	9,69
723,494	-10,55
723,827	-12,61
724,16	4,07
724,493	-9,69
724,826	1,76
725,159	5,96
725,492	14,22
725,825	10,09
726,157	-14,07
726,49	1,87
726,823	5,04
727,155	20,94
727,488	-12,96
727,82	-2,82
728,153	-11,28
728,485	4,79
728,817	4,35
729,15	-5,49
729,482	5,18
729,814	2,44
730,146	12,39
730,478	-0,36
730,81	4,35
731,142	-5,79
731,474	5,82
731,806	-14,45
732,138	-10,57
732,47	-13,07
732,801	-13,07
733,133	26,58
733,465	11,63
733,796	2,58
734,128	8,39
734,46	2,25
734,791	-13,5
735,122	17,46
735,454	10,53
735,785	-9,89
736,116	-3,91
736,448	12,37
736,779	-10,86
737,11	-28,5
737,441	-17,54
737,772	4,35
738,103	7,73
738,434	8,64
738,765	13,67
739,096	-3,77
739,427	-7,17
739,758	19,44
740,088	12,32
740,419	-11,45
740,75	-15,55
741,08	5,82
741,411	16,6
741,741	-20,11
742,072	-16
742,402	10,16
742,732	21,78
743,063	16,59
743,393	18,13
743,723	20,85
744,053	12,87
744,383	-18,92
744,713	-14,51
745,043	-25
745,373	-39,57
745,703	-0,47
746,033	30,69
746,363	-60,33
746,693	-5,43
747,022	-23,57
747,352	23,65
747,682	-0,57
748,011	-42,31
748,341	21,08
748,67	-11,76
749	-13,67
749,329	7,42
749,659	-9,41
749,988	-0,54
750,317	-21,14
750,646	-49,11
750,975	12,32
751,305	-16,96
751,634	51,46
751,963	-5,71
752,292	5,1
752,62	14,86
752,949	5,1
753,278	-72,37
753,607	41,89
753,936	-115
754,264	21,08
754,593	18,09
754,922	36,79
755,25	-7,69
755,579	-7,69
755,907	7,77
756,235	-13,16
756,564	-85,88
756,892	45,22
757,22	-17,24
757,548	-32,94
757,877	16,5
758,205	51,08
758,533	44,83
758,861	-1,49
759,189	-14,62
759,517	7,77
759,844	34,21
760,172	-39,36
760,5	23,65
760,828	-13,16
761,155	7,77
761,483	-22,35
761,811	20
762,138	46,81
762,466	34,21
762,793	6,15
763,12	51,76
763,448	65,96
763,775	42,72
764,102	22,37
764,429	-28,36
764,757	13,79
765,084	38,81
765,411	20
765,738	-1,06
766,065	-84,21
766,392	-0,97
766,718	25,24
767,045	87,5
767,372	-1,72
767,699	30,59
768,025	41,18
768,352	87,5
768,678	11,94
769,005	-148,39
769,331	-1,72
769,658	-70
769,984	-146,15
770,31	-115
770,637	7,77
770,963	54,84
771,289	-17,24
771,615	51,76
771,941	-79,31
772,267	13,08
772,593	30,59
772,919	10,53
773,245	-115
773,571	21,49
773,897	83,87
774,222	-148,39
774,548	-1,32
774,874	-25
775,199	-70
775,525	-284,62
775,85	60,34
776,176	14,05
776,501	-148,98
776,827	44,83
777,152	87,5
777,477	-32,76
777,802	34,69
778,128	-1,49
778,453	20
778,778	38,81
779,103	16,33
779,428	20
779,753	177,5
780,077	-168,18
780,402	34,69
780,727	278,26
781,052	118,18
781,376	-86,36
781,701	-4,55
782,026	55,36
782,35	-90,32
782,675	-64,71
782,999	29,31
783,323	42,5
783,648	94,68
783,972	200
784,296	-45,45
784,62	115,29
784,944	-17,24
785,269	-1,72
785,593	108,16
785,917	1280
786,24	-32,26
786,564	-250
786,888	-3,23
787,212	16,33
787,536	-1150
787,859	112,9
788,183	2
788,507	1,47
788,83	61,54
789,154	61,54
789,477	87,5
789,8	1325
790,124	200
790,447	264,29
790,77	46,81
791,094	-1240
791,417	31,25
791,74	22,37
792,063	-25
792,386	54,84
792,709	163,27
793,032	200
793,355	115,62
793,677	170,97
794	85,11
794,323	200
794,645	135,71
794,968	200
795,291	83,87
795,613	-3,23
795,936	87,5
796,258	46,34
796,58	-3,23
796,903	67,65
797,225	60,19
797,547	4,35
797,869	77,27
798,191	43,48
798,513	-25
798,836	-45,45
799,157	20
799,479	42,5
799,801	-121,43
800,123	-475
800,445	-340
800,767	-475
801,088	317,39
801,41	159,09
801,731	60,34
802,053	71,43
802,374	118,18
802,696	37,23
803,017	-423,08
803,339	71,43
803,66	155
803,981	380
804,302	42,5
804,623	-215,38
804,944	20
805,265	94,12
805,586	13,79
805,907	52,24
806,228	407,69
806,549	53,06
806,87	20
807,191	-47,5
807,511	312,5
807,832	71,43
808,152	560
808,473	170,97
808,793	170,97
809,114	159,09
809,434	200
809,755	-45,45
810,075	228,13
810,395	4,35
810,715	71,43
811,035	163,27
811,355	2,44
811,676	-1,72
811,995	-17,24
812,315	178,05
812,635	34,21
812,955	356,52
813,275	83,87
813,595	54,84
813,914	-7,69
814,234	-2,5
814,554	-7,69
814,873	87,5
815,193	16,33
