Data from Transmission_11-38-06-910.txt Node
Date: Tue Jul 23 11:38:06 EDT 2019
User: maxen
Spectrometer: USB2G16502
Scans to average: 10
Trigger mode: 4
Integration Time (sec): 1,000000E-1
Electric dark correction enabled: true
Boxcar width: 0
XAxis mode: Wavelengths
Number of Pixels in Spectrum: 2048
>>>>>Begin Spectral Data<<<<<
339,156	1100
339,534	10100
339,911	-49,3
340,288	89,47
340,665	-17,24
341,042	165,57
341,419	45,95
341,796	-45,45
342,173	160,87
342,55	75,61
342,927	189,66
343,304	-25,62
343,68	44
344,057	-227,66
344,434	-56,36
344,811	149,23
345,187	132,65
345,564	270,21
345,941	-54,43
346,317	4700
346,694	-113,95
347,07	-80,33
347,447	103,39
347,823	-18,92
348,199	174,58
348,576	53,02
348,952	-10,56
349,328	57,01
349,705	554,55
350,081	-13,29
350,457	34,4
350,833	6,19
351,209	210,34
351,585	35,48
351,961	35,77
352,337	-62,11
352,713	87,79
353,089	124,3
353,465	60,4
353,841	-32,58
354,217	102,11
354,593	21,18
354,968	44,53
355,344	4,52
355,72	-19,33
356,095	154,24
356,471	-6,59
356,847	140
357,222	-54,2
357,598	164
357,973	-3,65
358,349	67,83
358,724	11,8
359,099	-59,66
359,475	82,74
359,85	-100
360,225	3,45
360,6	64,21
360,976	46,19
361,351	-85,54
361,726	162,92
362,101	8,43
362,476	-25,84
362,851	-3,36
363,226	-136,14
363,601	111,2
363,976	37,4
364,351	80,42
364,726	70,8
365,1	59,04
365,475	80,86
365,85	-121,24
366,225	27,37
366,599	86,34
366,974	66,45
367,348	32,74
367,723	47,08
368,097	-27,1
368,472	85,05
368,846	-460
369,221	30,25
369,595	52,43
369,969	0,65
370,344	473,91
370,718	110,39
371,092	119,8
371,466	15,53
371,841	479,31
372,215	106,4
372,589	54,09
372,963	176,92
373,337	11,38
373,711	36,22
374,085	32,47
374,459	-9,24
374,832	-14,29
375,206	-15,89
375,58	-202,86
375,954	34,83
376,327	55,06
376,701	84,19
377,075	40,67
377,448	73,55
377,822	-9,24
378,195	32,93
378,569	44
378,942	-6,59
379,316	17,7
379,689	33,91
380,063	323,53
380,436	38,92
380,809	-2,46
381,182	7,57
381,556	84,36
381,929	66,27
382,302	-45,45
382,675	33,16
383,048	47,21
383,421	56,92
383,794	142,55
384,167	-28,81
384,54	81,21
384,913	14,45
385,286	24,83
385,659	48,99
386,031	42,7
386,404	194,92
386,777	62,23
387,149	79,74
387,522	59,61
387,895	109,64
388,267	58,59
388,64	172,73
389,012	-210,77
389,385	78,22
389,757	-46,9
390,129	18,63
390,502	79,22
390,874	28,86
391,246	10,27
391,619	56,07
391,991	122,38
392,363	74,45
392,735	33,91
393,107	-6,83
393,479	28,32
393,851	90,42
394,223	77,22
394,595	52,11
394,967	49,13
395,339	15,74
395,711	29,68
396,082	38,22
396,454	-31,3
396,826	81,01
397,198	2,79
397,569	82,61
397,941	68,68
398,312	37,43
398,684	98,69
399,055	83,28
399,427	51,6
399,798	20,4
400,17	51,32
400,541	33,16
400,912	65,04
401,284	77,49
401,655	44,83
402,026	9,97
402,397	41,79
402,768	47,91
403,139	49,11
403,51	3,81
403,881	53,05
404,252	47,52
404,623	40,83
404,994	33,57
405,365	42,45
405,736	41,5
406,107	29,83
406,477	28,52
406,848	42,09
407,219	53,91
407,59	46,81
407,96	43,87
408,331	52,53
408,701	45
409,072	44,12
409,442	48,38
409,813	48,12
410,183	53,59
410,553	44,12
410,924	39,72
411,294	40,53
411,664	42,71
412,034	47,98
412,405	52,26
412,775	44,86
413,145	41,53
413,515	41,89
413,885	40,69
414,255	38,64
414,625	42,37
414,995	41,45
415,364	42,38
415,734	38,28
416,104	36,88
416,474	42,08
416,844	41,91
417,213	38,96
417,583	36,61
417,952	39,3
418,322	39,88
418,692	37,64
419,061	38,14
419,43	39,13
419,8	41,82
420,169	41,44
420,539	38,03
420,908	37,75
421,277	35,67
421,646	36,67
422,016	39,16
422,385	39,99
422,754	38,39
423,123	36,79
423,492	36,94
423,861	39,08
424,23	37,74
424,599	36,46
424,968	40,44
425,337	38,02
425,705	39,57
426,074	36,94
426,443	37,38
426,812	40,04
427,18	39,12
427,549	38,61
427,918	36,8
428,286	36,38
428,655	38,27
429,023	41,78
429,392	41,11
429,76	39,12
430,128	36,52
430,497	37,54
430,865	37,14
431,233	37,41
431,601	38,1
431,97	37,67
432,338	36,36
432,706	35,45
433,074	35,18
433,442	36,34
433,81	37,61
434,178	40,12
434,546	38,9
434,914	34,61
435,281	33,4
435,649	33,51
436,017	33,71
436,385	34,13
436,752	34,64
437,12	36,75
437,488	35,19
437,855	31,84
438,223	33
438,59	33,93
438,958	32,09
439,325	31,99
439,693	31,96
440,06	31,15
440,427	31,01
440,794	31,61
441,162	30,57
441,529	32,57
441,896	31,76
442,263	32,41
442,63	31,02
442,997	30,31
443,364	29,33
443,731	30,55
444,098	31,06
444,465	28,65
444,832	27,8
445,199	28,43
445,566	32,46
445,932	33,2
446,299	29,88
446,666	29,33
447,032	29,35
447,399	33,2
447,765	30,6
448,132	30,9
448,498	28,56
448,865	28,3
449,231	30,55
449,597	31,81
449,964	30,79
450,33	29,52
450,696	29,47
451,063	29,14
451,429	29,81
451,795	30,72
452,161	32,68
452,527	30,12
452,893	29,12
453,259	29,88
453,625	29,49
453,991	30,97
454,357	30,73
454,722	27,96
455,088	29,05
455,454	28,77
455,82	32,19
456,185	31,21
456,551	27,47
456,916	28,45
457,282	30,63
457,648	33,6
458,013	30,87
458,378	28,52
458,744	26,76
459,109	30,07
459,474	32,35
459,84	30,67
460,205	29,22
460,57	27,19
460,935	28,89
461,3	30,99
461,666	32,66
462,031	30,24
462,396	27,66
462,761	26,5
463,126	29,87
463,49	31,05
463,855	31,18
464,22	30,26
464,585	29,17
464,95	29,74
465,314	30,25
465,679	29,97
466,044	30,33
466,408	30,08
466,773	27,44
467,137	27,16
467,502	28,45
467,866	31,62
468,23	33,71
468,595	29,67
468,959	29,38
469,323	30,75
469,688	29,14
470,052	28,12
470,416	27,56
470,78	29,36
471,144	31,07
471,508	28,93
471,872	27,05
472,236	27,01
472,6	29,35
472,964	29,92
473,328	28,24
473,692	26,16
474,055	26,85
474,419	26,89
474,783	28,74
475,146	29,92
475,51	28,26
475,874	27,22
476,237	27,38
476,601	27,4
476,964	27,68
477,327	26,5
477,691	26,51
478,054	26,31
478,417	27,42
478,781	26,23
479,144	26,26
479,507	26,99
479,87	26,88
480,233	27,51
480,596	26,59
480,959	26,05
481,322	26,59
481,685	26,6
482,048	25,37
482,411	23,76
482,774	25,39
483,137	26,38
483,499	26,65
483,862	26,16
484,225	25,21
484,588	23,99
484,95	24,81
485,313	25,97
485,675	26,55
486,038	25,22
486,4	24,21
486,762	25,69
487,125	25,47
487,487	26,09
487,849	24,73
488,212	23,82
488,574	23,63
488,936	24,93
489,298	25,7
489,66	26,04
490,022	25,92
490,384	26,44
490,746	26,05
491,108	23,67
491,47	22,93
491,832	24,94
492,194	27,05
492,555	26,21
492,917	24,84
493,279	23,57
493,64	23,59
494,002	23,95
494,364	25,69
494,725	27,32
495,087	26,57
495,448	24,83
495,809	24,23
496,171	23,74
496,532	23,4
496,893	24,39
497,255	25,48
497,616	25,91
497,977	25,07
498,338	23,87
498,699	24,56
499,06	25,53
499,421	26,02
499,782	24,72
500,143	23,73
500,504	22,75
500,865	24,28
501,226	26,69
501,586	26,12
501,947	23,95
502,308	23,69
502,669	25,1
503,029	25,35
503,39	24,94
503,75	23,75
504,111	24,49
504,471	24,78
504,832	23,54
505,192	22,99
505,552	24,72
505,913	26,46
506,273	26,52
506,633	24,66
506,993	23,11
507,353	23,5
507,713	24,11
508,073	23,85
508,433	24,1
508,793	24,28
509,153	23,74
509,513	23,54
509,873	23,14
510,233	22,54
510,593	22,85
510,952	23,9
511,312	24,77
511,672	25,08
512,031	24,16
512,391	23,7
512,75	23,9
513,11	23,21
513,469	22,25
513,829	22,42
514,188	24,2
514,548	25,53
514,907	23,43
515,266	22,03
515,625	22,13
515,984	23,25
516,344	24,09
516,703	23,74
517,062	21,93
517,421	21,83
517,78	22,78
518,139	23,05
518,497	23,62
518,856	23,56
519,215	22,61
519,574	21,96
519,933	20,69
520,291	21,06
520,65	22,69
521,009	24,56
521,367	24,68
521,726	22,13
522,084	20,3
522,443	20,45
522,801	22,24
523,159	23,19
523,518	21,61
523,876	21,19
524,234	21,62
524,592	21,77
524,95	21,83
525,309	21,38
525,667	21,83
526,025	21,79
526,383	21,46
526,741	21,84
527,099	22,1
527,456	22,47
527,814	22,72
528,172	21,98
528,53	21,24
528,887	21,22
529,245	20,54
529,603	20,63
529,96	20,98
530,318	21,96
530,675	22,74
531,033	22,62
531,39	21,78
531,748	21,21
532,105	20,81
532,462	21,02
532,82	21
533,177	21,12
533,534	22,01
533,891	21,75
534,248	21,48
534,605	21,86
534,962	21,63
535,319	21,94
535,676	22,62
536,033	22,18
536,39	21,28
536,747	19,75
537,104	20,1
537,46	22,91
537,817	23,72
538,174	22,74
538,53	21,61
538,887	21,14
539,243	21,18
539,6	21,66
539,956	20,66
540,313	22,04
540,669	23,21
541,025	22,65
541,382	22,07
541,738	22,13
542,094	22
542,45	21,56
542,806	21,8
543,162	21,24
543,518	21,62
543,874	22,04
544,23	22,12
544,586	22,66
544,942	23,13
545,298	22,55
545,654	22,28
546,009	22,83
546,365	22,6
546,721	22,35
547,076	22,01
547,432	22,72
547,788	23,02
548,143	22,73
548,499	21,61
548,854	21,61
549,209	23,15
549,565	24,33
549,92	23,55
550,275	22,3
550,63	21,74
550,986	22,01
551,341	23,19
551,696	23,44
552,051	23
552,406	22,78
552,761	21,62
553,116	21,05
553,471	21,4
553,825	23,91
554,18	24,75
554,535	24,47
554,89	22,85
555,244	22,45
555,599	22,41
555,954	23,18
556,308	22,55
556,663	22,19
557,017	22,82
557,371	23,29
557,726	23,25
558,08	22,95
558,435	23,41
558,789	23,17
559,143	23,16
559,497	22,2
559,851	22,24
560,205	22,72
560,559	22,85
560,913	22,53
561,267	22,21
561,621	21,93
561,975	22,16
562,329	22,44
562,683	22,65
563,037	22,02
563,39	21,93
563,744	21,59
564,098	21,77
564,451	22,5
564,805	22,41
565,158	22,11
565,512	22,58
565,865	21,82
566,218	21,14
566,572	21,43
566,925	21,9
567,278	22,21
567,632	21,85
567,985	21,4
568,338	21,5
568,691	22,02
569,044	21,84
569,397	22,17
569,75	21,99
570,103	20,87
570,456	20,35
570,809	20,39
571,161	21,92
571,514	23,02
571,867	21,79
572,22	20,43
572,572	20,7
572,925	21,26
573,277	22,37
573,63	21,46
573,982	20,99
574,335	20,8
574,687	21,19
575,039	20,26
575,392	19,67
575,744	20,26
576,096	21,66
576,448	21,86
576,8	21,34
577,152	20,85
577,504	21,59
577,856	22,07
578,208	21,8
578,56	20,43
578,912	19,52
579,264	19,95
579,616	22,12
579,968	22,39
580,319	21,37
580,671	20,56
581,022	19,68
581,374	20,32
581,726	20,92
582,077	20,48
582,429	20,53
582,78	21,6
583,131	21,59
583,483	21,35
583,834	21,25
584,185	20,79
584,536	20,46
584,887	20,36
585,239	20,64
585,59	21,02
585,941	21
586,292	20,64
586,643	20,72
586,993	21,39
587,344	21,56
587,695	21,33
588,046	20,71
588,397	21,05
588,747	21,55
589,098	21,07
589,448	20,23
589,799	19,73
590,15	20,37
590,5	20,72
590,85	19,93
591,201	19,91
591,551	20,83
591,901	21,18
592,252	21,73
592,602	20,66
592,952	21,18
593,302	21,13
593,652	20,98
594,002	20,27
594,352	20,06
594,702	20,58
595,052	21,04
595,402	20,75
595,752	20,96
596,102	20,79
596,451	20,72
596,801	20,61
597,151	20,67
597,5	21,29
597,85	21,25
598,199	20,69
598,549	20,78
598,898	20,54
599,248	20,07
599,597	20,2
599,946	20,51
600,296	21,71
600,645	22,38
600,994	21,92
601,343	20,61
601,692	20,29
602,041	21,21
602,39	20,99
602,739	19,84
603,088	20,28
603,437	20,82
603,786	21,24
604,135	21,02
604,484	20,14
604,832	19,61
605,181	20,31
605,53	20,88
605,878	21,61
606,227	21,74
606,575	21
606,924	20,06
607,272	20,25
607,621	20,5
607,969	20,73
608,317	19,74
608,665	20
609,014	20,68
609,362	20,86
609,71	20,54
610,058	19,84
610,406	20,36
610,754	21,29
611,102	21,32
611,45	20,66
611,798	19,89
612,145	20,29
612,493	20,57
612,841	20,97
613,189	20,07
613,536	19,97
613,884	19,76
614,231	20,11
614,579	20,48
614,926	20,06
615,274	20,1
615,621	19,96
615,968	20,13
616,316	19,38
616,663	19,45
617,01	19,89
617,357	19,48
617,704	19,91
618,051	20,31
618,398	19,72
618,745	19,45
619,092	19,35
619,439	19,22
619,786	20,02
620,133	21,11
620,48	20,6
620,826	19,04
621,173	18,53
621,52	18,94
621,866	20,03
622,213	20,21
622,559	19,87
622,906	19,47
623,252	18,68
623,599	18,95
623,945	19,61
624,291	19,14
624,638	19,16
624,984	18,28
625,33	18,73
625,676	19,16
626,022	19,88
626,368	19,78
626,714	20,12
627,06	19,02
627,406	18,72
627,752	18,51
628,098	18,5
628,443	18,8
628,789	19,36
629,135	19,13
629,48	19,09
629,826	19,42
630,171	19,44
630,517	19,36
630,862	18,95
631,208	18,4
631,553	18,24
631,898	18,95
632,244	19,8
632,589	19,82
632,934	19,52
633,279	18,16
633,624	17,59
633,97	17,9
634,315	18,96
634,659	19,76
635,004	20,39
635,349	19,33
635,694	18,7
636,039	18,61
636,384	19,24
636,728	18,83
637,073	17,81
637,418	17,61
637,762	18,69
638,107	19,61
638,451	19,39
638,796	18,45
639,14	17,79
639,484	18,42
639,829	18,53
640,173	18,82
640,517	18,4
640,861	18,54
641,206	18,04
641,55	18,45
641,894	18,36
642,238	19,08
642,582	18,63
642,926	17,89
643,269	18,41
643,613	18,89
643,957	19,33
644,301	18,96
644,645	17,57
644,988	17,91
645,332	18,41
645,675	18,92
646,019	18,53
646,362	18,34
646,706	18,93
647,049	18,91
647,392	18,36
647,736	17,87
648,079	17,63
648,422	18,53
648,765	19,33
649,108	18,44
649,452	19,42
649,795	19,34
650,138	18
650,48	17,39
650,823	17,45
651,166	18,12
651,509	19,49
651,852	20,04
652,195	18,28
652,537	17,99
652,88	18,06
653,222	18,17
653,565	18,5
653,907	18,25
654,25	19
654,592	19,01
654,935	19,55
655,277	19,31
655,619	18,87
655,961	17,96
656,304	18,72
656,646	18,38
656,988	18,5
657,33	20,1
657,672	19,83
658,014	18,95
658,356	18,64
658,698	17,56
659,039	18,25
659,381	18,85
659,723	18,92
660,065	19,16
660,406	18,82
660,748	19,34
661,089	19,37
661,431	19,47
661,772	19,05
662,114	18,86
662,455	18,49
662,797	18,73
663,138	18,35
663,479	18,85
663,82	19
664,161	18,88
664,503	19,39
664,844	18,68
665,185	18,52
665,526	18,44
665,867	18,95
666,207	18,69
666,548	18,44
666,889	18,33
667,23	19,1
667,57	19,24
667,911	18,44
668,252	17,89
668,592	19,42
668,933	19,55
669,273	18,6
669,614	18,25
669,954	17,89
670,294	18,97
670,635	17,8
670,975	19,33
671,315	19,29
671,655	19
671,995	19,52
672,336	17,88
672,676	17,7
673,016	17,66
673,355	18,96
673,695	19,24
674,035	19,29
674,375	17,62
674,715	17,28
675,054	17,47
675,394	18,62
675,734	18,52
676,073	18,86
676,413	19,28
676,752	19,21
677,092	18,34
677,431	17,4
677,77	17,99
678,11	18,02
678,449	18,04
678,788	18,04
679,127	17,65
679,467	19,1
679,806	18,49
680,145	18,64
680,484	17,78
680,823	18,24
681,161	17,36
681,5	17,53
681,839	17,29
682,178	16,92
682,517	18,27
682,855	19,24
683,194	18,83
683,532	19,67
683,871	19,6
684,209	18,76
684,548	16,67
684,886	17,05
685,225	17,82
685,563	17,69
685,901	17,84
686,239	18,11
686,578	17,19
686,916	17,68
687,254	18,5
687,592	17,75
687,93	18,34
688,268	17,55
688,606	18,83
688,943	16,87
689,281	17,55
689,619	18,2
689,957	18,54
690,294	17,9
690,632	17,94
690,969	18,81
691,307	16,63
691,644	15,77
691,982	18,63
692,319	18,6
692,657	18,53
692,994	17,51
693,331	18,51
693,668	17,54
694,006	18,08
694,343	17,24
694,68	19,81
695,017	18,08
695,354	18,04
695,691	19,25
696,028	19,79
696,364	16,78
696,701	18,22
697,038	17,83
697,375	16,55
697,711	18,38
698,048	16,68
698,384	16,58
698,721	19,39
699,057	19,58
699,394	17,77
699,73	18,82
700,066	19,04
700,403	20
700,739	19,45
701,075	16,74
701,411	16,83
701,747	18,39
702,083	18,79
702,419	17,16
702,755	16,84
703,091	17,96
703,427	19,68
703,763	14,12
704,099	20,49
704,435	19,23
704,77	17,55
705,106	16,33
705,441	16,53
705,777	18,9
706,113	19,52
706,448	15,04
706,783	17,72
707,119	16,76
707,454	17,83
707,789	14,72
708,125	18,53
708,46	18,77
708,795	16,83
709,13	14,73
709,465	17,96
709,8	17,67
710,135	15,11
710,47	18,16
710,805	20,76
711,139	21,33
711,474	17,79
711,809	17,61
712,144	18,39
712,478	19
712,813	19,35
713,147	17,79
713,482	15,09
713,816	19,39
714,151	18,49
714,485	15,75
714,819	20,25
715,153	14,58
715,488	19,34
715,822	18,97
716,156	16,45
716,49	19,28
716,824	18,36
717,158	15,32
717,492	22,59
717,826	16,9
718,16	18,72
718,493	18,57
718,827	19,66
719,161	16,7
719,494	20,93
719,828	21,31
720,161	22,2
720,495	17,51
720,828	14,99
721,162	16,89
721,495	19,6
721,829	20,65
722,162	17,58
722,495	19,51
722,828	16,56
723,161	21,05
723,494	16,44
723,827	17,2
724,16	13,1
724,493	17,05
724,826	18,51
725,159	21,78
725,492	19,95
725,825	19,95
726,157	15,62
726,49	20
726,823	18,61
727,155	21,27
727,488	19,89
727,82	16,54
728,153	18,7
728,485	17,99
728,817	16,68
729,15	19,83
729,482	13,03
729,814	18,37
730,146	11,31
730,478	15,19
730,81	17,17
731,142	20,38
731,474	13,26
731,806	23,17
732,138	21,95
732,47	19,93
732,801	19,18
733,133	19,86
733,465	18,73
733,796	18,95
734,128	18,64
734,46	17,5
734,791	8,43
735,122	23,64
735,454	25,98
735,785	22,08
736,116	21,15
736,448	23,13
736,779	19,84
737,11	26,35
737,441	17,27
737,772	21,27
738,103	15,51
738,434	23,94
738,765	12,87
739,096	14,42
739,427	17,06
739,758	16,37
740,088	11
740,419	17,18
740,75	23,86
741,08	9,21
741,411	25,87
741,741	16,92
742,072	23,29
742,402	19,49
742,732	9,88
743,063	23,96
743,393	25,84
743,723	7,03
744,053	11,21
744,383	18,82
744,713	23,84
745,043	16,49
745,373	24,86
745,703	16,79
746,033	23,03
746,363	20,74
746,693	26,13
747,022	20
747,352	21,24
747,682	35,92
748,011	28,7
748,341	19,47
748,67	21,38
749	24,56
749,329	24,41
749,659	15,75
749,988	15,18
750,317	20,94
750,646	33,71
750,975	24,16
751,305	20
751,634	24,28
751,963	22,07
752,292	18,13
752,62	11,56
752,949	26,01
753,278	24,53
753,607	11,5
753,936	19,57
754,264	20,15
754,593	4,66
754,922	11,82
755,25	27,42
755,579	32,7
755,907	27,09
756,235	9,17
756,564	24,04
756,892	32,25
757,22	7,33
757,548	29,73
757,877	35,19
758,205	7,71
758,533	9,57
758,861	0,14
759,189	21,14
759,517	37,89
759,844	7,06
760,172	9,34
760,5	21,64
760,828	33,23
761,155	3,45
761,483	29,56
761,811	17,52
762,138	19,59
762,466	33,94
762,793	1,27
763,12	25,85
763,448	29,02
763,775	6,79
764,102	28,9
764,429	23,68
764,757	-2,24
765,084	15,71
765,411	8,99
765,738	12,16
766,065	16,7
766,392	-1,08
766,718	11,98
767,045	6,81
767,372	8,87
767,699	-7,69
768,025	41,56
768,352	31,29
768,678	1,36
769,005	1,67
769,331	-11,05
769,658	37,66
769,984	18,09
770,31	31,05
770,637	21,97
770,963	11,59
771,289	7,92
771,615	51,06
771,941	16,18
772,267	6,64
772,593	29,18
772,919	28,12
773,245	4,81
773,571	20,63
773,897	29,56
774,222	15,93
774,548	26,01
774,874	8,37
775,199	4,81
775,525	55,82
775,85	-1,42
776,176	23,58
776,501	11,98
776,827	50,4
777,152	28,71
777,477	49,61
777,802	2,71
778,128	16,71
778,453	4,18
778,778	49,04
779,103	30,54
779,428	33,09
779,753	37,05
780,077	18,08
780,402	53,19
780,727	20,33
781,052	9,09
781,376	37,05
781,701	45,4
782,026	40,76
782,35	119,8
782,675	-21,12
782,999	11,03
783,323	21,71
783,648	2,13
783,972	33,15
784,296	55,29
784,62	33,15
784,944	29,01
785,269	43,45
785,593	5,44
785,917	48,8
786,24	50,63
786,564	61,77
786,888	22,79
787,212	44,48
787,536	44,83
787,859	-31,54
788,183	11,52
788,507	53,58
788,83	30,96
789,154	59,7
789,477	68,2
789,8	64,38
790,124	9,09
790,447	86,55
790,77	-6,61
791,094	-4
791,417	-9,5
791,74	18,63
792,063	19,46
792,386	-76,54
792,709	-13,29
793,032	25,52
793,355	40,1
793,677	12,26
794	-25,32
794,323	23,87
794,645	82,2
794,968	59,54
795,291	22,98
795,613	10,4
795,936	69,47
796,258	55,24
796,58	17,44
796,903	34,8
797,225	-4,42
797,547	0,49
797,869	31,8
798,191	-4,98
798,513	22,17
798,836	34,16
799,157	40,12
799,479	19,46
799,801	-19,1
800,123	82,74
800,445	93,47
800,767	-29,41
801,088	87,2
801,41	49,36
801,731	79,22
802,053	54,75
802,374	121,54
802,696	36,22
803,017	50,84
803,339	531,58
803,66	68
803,981	95,51
804,302	27,74
804,623	72,53
804,944	-5,95
805,265	41,18
805,586	48,8
805,907	-56,2
